ALV-5000/E-WIN Data
Date :	"13.03.17"
Time :	"12:10:16"
Samplename : 	""
Temperature [K] :	     298.16000
Viscosity [cp]  :	       0.89454
Refractive Index:	       1.33000
Wavelength [nm] :	     532.00000
Angle [Â°]       :	      80.00000
Duration [s]    :	        30
Runs            :	         1
Mode            :	"SINGLE AUTO CH0 "
MeanCR0 [kHz]   :	      16.40119
MeanCR1 [kHz]   :	       0.00000

"Correlation"
  2.00000E-004	  6.40321E-001
  4.00000E-004	  7.14392E-001
  6.00000E-004	  6.25760E-001
  8.00000E-004	  6.13098E-001
  1.00000E-003	  5.31430E-001
  1.20000E-003	  6.31458E-001
  1.40000E-003	  5.57387E-001
  1.60000E-003	  5.80178E-001
  1.80000E-003	  6.00437E-001
  2.00000E-003	  5.61818E-001
  2.20000E-003	  5.30164E-001
  2.40000E-003	  5.37761E-001
  2.60000E-003	  5.52322E-001
  2.80000E-003	  5.76379E-001
  3.00000E-003	  5.16236E-001
  3.20000E-003	  5.67200E-001
  3.60000E-003	  5.63718E-001
  4.00000E-003	  5.95688E-001
  4.40000E-003	  5.52955E-001
  4.80000E-003	  5.48524E-001
  5.20000E-003	  5.28898E-001
  5.60000E-003	  5.61502E-001
  6.00000E-003	  5.12438E-001
  6.40000E-003	  5.33330E-001
  7.20000E-003	  5.32538E-001
  8.00000E-003	  5.34279E-001
  8.80000E-003	  5.42668E-001
  9.60000E-003	  5.25258E-001
  1.04000E-002	  5.26524E-001
  1.12000E-002	  5.33013E-001
  1.20000E-002	  5.38078E-001
  1.28000E-002	  5.32307E-001
  1.44000E-002	  5.32466E-001
  1.60000E-002	  5.02394E-001
  1.76000E-002	  5.15214E-001
  1.92000E-002	  5.03739E-001
  2.08000E-002	  5.02869E-001
  2.24000E-002	  5.14343E-001
  2.40000E-002	  5.10782E-001
  2.56000E-002	  5.11297E-001
  2.88000E-002	  4.96775E-001
  3.20000E-002	  4.94203E-001
  3.52000E-002	  4.83167E-001
  3.84000E-002	  4.62038E-001
  4.16000E-002	  4.53689E-001
  4.48000E-002	  4.69358E-001
  4.80000E-002	  4.58595E-001
  5.12000E-002	  4.58191E-001
  5.76000E-002	  4.34591E-001
  6.40000E-002	  4.23710E-001
  7.04000E-002	  4.15440E-001
  7.68000E-002	  4.05232E-001
  8.32000E-002	  4.00068E-001
  8.96000E-002	  3.85705E-001
  9.60000E-002	  3.64893E-001
  1.02400E-001	  3.62595E-001
  1.15200E-001	  3.51918E-001
  1.28000E-001	  3.29305E-001
  1.40800E-001	  3.09067E-001
  1.53600E-001	  2.96241E-001
  1.66400E-001	  2.86369E-001
  1.79200E-001	  2.70951E-001
  1.92000E-001	  2.47547E-001
  2.04800E-001	  2.42230E-001
  2.30400E-001	  2.24630E-001
  2.56000E-001	  2.00700E-001
  2.81600E-001	  1.77464E-001
  3.07200E-001	  1.63296E-001
  3.32800E-001	  1.52901E-001
  3.58400E-001	  1.37353E-001
  3.84000E-001	  1.22091E-001
  4.09600E-001	  1.09213E-001
  4.60800E-001	  8.93103E-002
  5.12000E-001	  7.34429E-002
  5.63200E-001	  6.20960E-002
  6.14400E-001	  4.82959E-002
  6.65600E-001	  4.56304E-002
  7.16800E-001	  3.47778E-002
  7.68000E-001	  3.14669E-002
  8.19200E-001	  2.41808E-002
  9.21600E-001	  1.56831E-002
  1.02400E+000	  8.72585E-003
  1.12640E+000	  6.72344E-003
  1.22880E+000	  6.03377E-003
  1.33120E+000	  3.39256E-003
  1.43360E+000	  2.18935E-003
  1.53600E+000	  8.64231E-004
  1.63840E+000	 -1.56466E-003
  1.84320E+000	 -1.62252E-003
  2.04800E+000	 -8.19173E-004
  2.25280E+000	 -9.69330E-004
  2.45760E+000	 -1.78111E-003
  2.66240E+000	 -2.59020E-003
  2.86720E+000	  6.44996E-004
  3.07200E+000	 -1.12315E-003
  3.22560E+000	 -1.56536E-003
  3.63520E+000	  1.40229E-003
  4.04480E+000	 -3.77173E-004
  4.45440E+000	  1.53292E-003
  4.86400E+000	 -2.20628E-003
  5.27360E+000	  1.15730E-004
  5.68320E+000	  2.75870E-003
  6.09280E+000	  8.71903E-004
  6.50240E+000	  3.65106E-004
  7.32160E+000	 -2.21245E-003
  8.14080E+000	  2.67048E-003
  8.96000E+000	  1.32541E-003
  9.77920E+000	  4.01938E-004
  1.05984E+001	 -1.01084E-003
  1.14176E+001	 -2.57258E-003
  1.22368E+001	 -1.89702E-003
  1.30560E+001	 -1.25166E-003
  1.46944E+001	  1.23736E-003
  1.63328E+001	  1.63647E-003
  1.79712E+001	 -3.26634E-004
  1.96096E+001	  1.80253E-003
  2.12480E+001	  1.86766E-004
  2.28864E+001	  2.20715E-004
  2.45248E+001	  7.82961E-004
  2.61632E+001	  1.65375E-004
  2.94400E+001	 -5.32809E-004
  3.27168E+001	  7.78620E-004
  3.59936E+001	  2.99998E-004
  3.92704E+001	 -1.50180E-003
  4.25472E+001	  5.00557E-005
  4.58240E+001	  4.14824E-004
  4.91008E+001	 -1.96046E-003
  5.23776E+001	 -1.18904E-003
  5.89312E+001	  4.29206E-004
  6.54848E+001	  1.82809E-005
  7.20384E+001	 -2.76313E-004
  7.85920E+001	  6.90703E-004
  8.51456E+001	 -1.17393E-003
  9.16992E+001	  1.32589E-003
  9.82528E+001	 -7.92370E-005
  1.04806E+002	 -3.96635E-004
  1.17914E+002	 -4.59009E-004
  1.31021E+002	 -1.14348E-003
  1.44128E+002	  7.53756E-004
  1.57235E+002	  8.97577E-004
  1.70342E+002	  7.40231E-004
  1.83450E+002	  1.04487E-003
  1.96557E+002	 -6.48463E-004
  2.09664E+002	 -4.32437E-004
  2.35878E+002	  1.58687E-004
  2.62093E+002	 -3.52518E-004
  2.88307E+002	 -2.84049E-004
  3.14522E+002	  2.77351E-004
  3.40736E+002	 -3.47160E-005
  3.66950E+002	  3.68357E-004
  3.93165E+002	 -9.10428E-004
  4.19379E+002	 -6.21282E-005
  4.71808E+002	  3.05132E-004
  5.24237E+002	  1.47396E-004
  5.76666E+002	  3.75751E-004
  6.29094E+002	  3.19500E-004
  6.81523E+002	 -6.22024E-005
  7.33952E+002	 -5.80784E-004
  7.86381E+002	 -1.10188E-004
  8.38810E+002	  1.08703E-004
  9.43667E+002	  2.02812E-005
  1.04852E+003	 -2.05639E-004
  1.15338E+003	  2.30755E-004
  1.25824E+003	  6.64849E-005
  1.36310E+003	 -1.18380E-004
  1.46796E+003	  2.88885E-004
  1.57281E+003	  5.72900E-005
  1.67767E+003	  2.02780E-004
  1.88739E+003	  3.57313E-005
  2.09710E+003	  2.61660E-005
  2.30682E+003	  8.09050E-005
  2.51653E+003	  7.41177E-005
  2.72625E+003	  1.95711E-004
  2.93596E+003	  7.77487E-005
  3.14568E+003	  7.19076E-005
  3.35539E+003	 -2.21406E-005
  3.77482E+003	  1.07032E-005
  4.19425E+003	  1.14459E-004
  4.61368E+003	  2.20881E-004
  5.03311E+003	  1.24250E-004
  5.45254E+003	  2.25719E-005
  5.87197E+003	  1.76794E-005
  6.29140E+003	 -8.81316E-005

"Count Rate"
       0.11719	      16.43254
       0.23438	      16.56912
       0.35156	      16.68863
       0.46875	      16.18499
       0.58594	      16.16791
       0.70313	      14.73380
       0.82031	      17.07277
       0.93750	      15.95450
       1.05469	      15.10087
       1.17188	      14.92160
       1.28906	      16.49230
       1.40625	      16.90204
       1.52344	      14.98989
       1.64063	      15.47647
       1.75781	      15.14355
       1.87500	      14.75941
       1.99219	      18.06299
       2.10938	      16.85082
       2.22656	      16.49230
       2.34375	      15.68134
       2.46094	      17.72154
       2.57813	      18.25933
       2.69531	      16.68010
       2.81250	      16.04840
       2.92969	      18.37030
       3.04688	      16.73132
       3.16406	      16.72278
       3.28125	      17.71300
       3.39844	      17.06423
       3.51563	      15.24598
       3.63281	      16.12523
       3.75000	      15.86914
       3.86719	      16.82522
       3.98438	      16.73132
       4.10156	      16.73985
       4.21875	      17.26911
       4.33594	      15.10940
       4.45313	      18.55810
       4.57031	      15.25452
       4.68750	      17.33740
       4.80469	      16.82522
       4.92188	      17.39715
       5.03906	      16.27035
       5.15625	      15.99719
       5.27344	      15.74109
       5.39063	      15.39964
       5.50781	      16.56912
       5.62500	      17.61056
       5.74219	      17.83251
       5.85938	      16.64595
       5.97656	      15.28867
       6.09375	      16.95326
       6.21094	      15.75817
       6.32813	      15.15208
       6.44531	      16.21060
       6.56250	      17.04716
       6.67969	      18.19104
       6.79688	      17.21789
       6.91406	      16.76546
       7.03125	      16.91912
       7.14844	      15.82646
       7.26563	      17.67885
       7.38281	      18.68615
       7.50000	      15.37403
       7.61719	      15.71549
       7.73438	      16.47522
       7.85156	      16.01426
       7.96875	      17.99470
       8.08594	      15.03257
       8.20313	      16.85936
       8.32031	      17.07277
       8.43750	      14.87038
       8.55469	      17.14106
       8.67188	      17.29472
       8.78906	      16.43254
       8.90625	      17.31179
       9.02344	      16.13377
       9.14063	      19.24101
       9.25781	      17.36301
       9.37500	      17.38008
       9.49219	      16.60327
       9.60938	      16.96180
       9.72656	      16.22767
       9.84375	      16.58620
       9.96094	      16.76546
      10.07813	      16.10816
      10.19531	      16.39840
      10.31250	      15.22038
      10.42969	      17.80690
      10.54688	      18.18250
      10.66406	      15.74963
      10.78125	      15.85207
      10.89844	      16.52644
      11.01563	      16.91912
      11.13281	      16.64595
      11.25000	      15.39964
      11.36719	      15.51915
      11.48438	      16.02279
      11.60156	      17.30325
      11.71875	      16.02279
      11.83594	      17.42276
      11.95313	      16.88497
      12.07031	      16.86790
      12.18750	      17.74714
      12.30469	      15.69841
      12.42188	      19.31784
      12.53906	      16.42401
      12.65625	      16.29596
      12.77344	      15.74109
      12.89063	      15.59598
      13.00781	      15.89475
      13.12500	      16.85936
      13.24219	      16.51791
      13.35938	      17.44837
      13.47656	      15.92036
      13.59375	      16.18499
      13.71094	      16.20206
      13.82813	      17.49105
      13.94531	      16.04840
      14.06250	      16.70571
      14.17969	      15.39964
      14.29688	      16.69717
      14.41406	      16.49230
      14.53125	      15.74963
      14.64844	      17.12399
      14.76563	      14.72526
      14.88281	      16.18499
      15.00000	      17.95202
      15.11719	      15.99719
      15.23438	      15.80939
      15.35156	      17.47398
      15.46875	      15.71549
      15.58594	      15.07526
      15.70313	      14.91306
      15.82031	      15.86060
      15.93750	      15.68988
      16.05469	      16.07401
      16.17188	      16.34718
      16.28906	      17.16667
      16.40625	      15.69841
      16.52344	      17.20935
      16.64063	      17.07277
      16.75781	      15.34842
      16.87500	      17.44837
      16.99219	      16.21060
      17.10938	      15.80085
      17.22656	      15.28013
      17.34375	      15.82646
      17.46094	      17.32033
      17.57813	      18.37884
      17.69531	      16.85082
      17.81250	      16.26181
      17.92969	      15.44232
      18.04688	      17.01302
      18.16406	      17.25204
      18.28125	      15.69841
      18.39844	      15.75817
      18.51563	      16.18499
      18.63281	      16.44962
      18.75000	      15.44232
      18.86719	      16.41547
      18.98438	      16.20206
      19.10156	      16.53498
      19.21875	      16.78253
      19.33594	      15.78378
      19.45313	      15.95450
      19.57031	      16.36425
      19.68750	      16.25328
      19.80469	      15.76670
      19.92188	      16.89351
      20.03906	      16.84229
      20.15625	      15.68988
      20.27344	      14.84477
      20.39063	      16.74839
      20.50781	      16.79961
      20.62500	      15.68134
      20.74219	      17.15813
      20.85938	      15.15208
      20.97656	      17.31179
      21.09375	      15.59598
      21.21094	      16.37279
      21.32813	      15.26306
      21.44531	      16.00572
      21.56250	      16.55205
      21.67969	      15.87768
      21.79688	      16.30450
      21.91406	      17.08131
      22.03125	      16.44962
      22.14844	      16.09962
      22.26563	      17.21789
      22.38281	      15.34842
      22.50000	      14.91306
      22.61719	      15.39110
      22.73438	      17.12399
      22.85156	      15.52769
      22.96875	      16.53498
      23.08594	      16.50937
      23.20313	      16.44108
      23.32031	      16.56912
      23.43750	      15.69841
      23.55469	      16.88497
      23.67188	      17.00448
      23.78906	      15.33135
      23.90625	      16.98741
      24.02344	      16.45815
      24.14063	      17.08984
      24.25781	      16.06548
      24.37500	      16.63741
      24.49219	      16.30450
      24.60938	      16.62888
      24.72656	      16.62034
      24.84375	      15.96304
      24.96094	      14.88746
      25.07813	      17.34594
      25.19531	      15.56183
      25.31250	      15.15208
      25.42969	      16.41547
      25.54688	      17.35447
      25.66406	      15.48500
      25.78125	      14.88746
      25.89844	      17.09838
      26.01563	      16.74839
      26.13281	      15.69841
      26.25000	      16.14231
      26.36719	      16.26181
      26.48438	      16.58620
      26.60156	      14.58015
      26.71875	      18.13982
      26.83594	      15.77524
      26.95313	      13.84602
      27.07031	      16.80814
      27.18750	      15.94597
      27.30469	      16.74839
      27.42188	      17.01302
      27.53906	      16.59473
      27.65625	      17.26911
      27.77344	      16.12523
      27.89063	      17.29472
      28.00781	      15.63866
      28.12500	      17.58495
      28.24219	      15.59598
      28.35938	      17.16667
      28.47656	      15.61305
      28.59375	      15.22891
      28.71094	      16.07401
      28.82813	      16.92765
      28.94531	      17.03009
      29.06250	      17.13252
      29.17969	      16.77400
      29.29688	      14.89599
      29.41406	      16.25328
      29.53125	      14.40942
      29.64844	      17.15813
      29.76563	      17.14106
      29.88281	      17.00448
