ALV-5000/E-WIN Data
Date :	"13.03.17"
Time :	"12:27:53"
Samplename : 	""
Temperature [K] :	     298.16000
Viscosity [cp]  :	       0.89454
Refractive Index:	       1.33000
Wavelength [nm] :	     532.00000
Angle [Â°]       :	      80.00000
Duration [s]    :	        30
Runs            :	         1
Mode            :	"SINGLE AUTO CH0 "
MeanCR0 [kHz]   :	     477.22696
MeanCR1 [kHz]   :	       0.00000

"Correlation"
  2.00000E-004	  5.47303E-001
  4.00000E-004	  5.53610E-001
  6.00000E-004	  5.52689E-001
  8.00000E-004	  5.49588E-001
  1.00000E-003	  5.50869E-001
  1.20000E-003	  5.51439E-001
  1.40000E-003	  5.48128E-001
  1.60000E-003	  5.47958E-001
  1.80000E-003	  5.48133E-001
  2.00000E-003	  5.50807E-001
  2.20000E-003	  5.49112E-001
  2.40000E-003	  5.49343E-001
  2.60000E-003	  5.46761E-001
  2.80000E-003	  5.47095E-001
  3.00000E-003	  5.46867E-001
  3.20000E-003	  5.47118E-001
  3.60000E-003	  5.47530E-001
  4.00000E-003	  5.46786E-001
  4.40000E-003	  5.46895E-001
  4.80000E-003	  5.47180E-001
  5.20000E-003	  5.46802E-001
  5.60000E-003	  5.46284E-001
  6.00000E-003	  5.46173E-001
  6.40000E-003	  5.44272E-001
  7.20000E-003	  5.44151E-001
  8.00000E-003	  5.43481E-001
  8.80000E-003	  5.42376E-001
  9.60000E-003	  5.42921E-001
  1.04000E-002	  5.40710E-001
  1.12000E-002	  5.41276E-001
  1.20000E-002	  5.39406E-001
  1.28000E-002	  5.39242E-001
  1.44000E-002	  5.38203E-001
  1.60000E-002	  5.35584E-001
  1.76000E-002	  5.35180E-001
  1.92000E-002	  5.33245E-001
  2.08000E-002	  5.31631E-001
  2.24000E-002	  5.30545E-001
  2.40000E-002	  5.29243E-001
  2.56000E-002	  5.28071E-001
  2.88000E-002	  5.25240E-001
  3.20000E-002	  5.22787E-001
  3.52000E-002	  5.20221E-001
  3.84000E-002	  5.17681E-001
  4.16000E-002	  5.15438E-001
  4.48000E-002	  5.12704E-001
  4.80000E-002	  5.10804E-001
  5.12000E-002	  5.07934E-001
  5.76000E-002	  5.02880E-001
  6.40000E-002	  4.98301E-001
  7.04000E-002	  4.93458E-001
  7.68000E-002	  4.89077E-001
  8.32000E-002	  4.84689E-001
  8.96000E-002	  4.80685E-001
  9.60000E-002	  4.76690E-001
  1.02400E-001	  4.72531E-001
  1.15200E-001	  4.64567E-001
  1.28000E-001	  4.57145E-001
  1.40800E-001	  4.49685E-001
  1.53600E-001	  4.42912E-001
  1.66400E-001	  4.35996E-001
  1.79200E-001	  4.29509E-001
  1.92000E-001	  4.23260E-001
  2.04800E-001	  4.17557E-001
  2.30400E-001	  4.06260E-001
  2.56000E-001	  3.95667E-001
  2.81600E-001	  3.85670E-001
  3.07200E-001	  3.76352E-001
  3.32800E-001	  3.67487E-001
  3.58400E-001	  3.59001E-001
  3.84000E-001	  3.50792E-001
  4.09600E-001	  3.43123E-001
  4.60800E-001	  3.28622E-001
  5.12000E-001	  3.15659E-001
  5.63200E-001	  3.03782E-001
  6.14400E-001	  2.92772E-001
  6.65600E-001	  2.82531E-001
  7.16800E-001	  2.72688E-001
  7.68000E-001	  2.63537E-001
  8.19200E-001	  2.54812E-001
  9.21600E-001	  2.39143E-001
  1.02400E+000	  2.25075E-001
  1.12640E+000	  2.12519E-001
  1.22880E+000	  2.00727E-001
  1.33120E+000	  1.89966E-001
  1.43360E+000	  1.80369E-001
  1.53600E+000	  1.71359E-001
  1.63840E+000	  1.63437E-001
  1.84320E+000	  1.48953E-001
  2.04800E+000	  1.36523E-001
  2.25280E+000	  1.25898E-001
  2.45760E+000	  1.17174E-001
  2.66240E+000	  1.09336E-001
  2.86720E+000	  1.02733E-001
  3.07200E+000	  9.66319E-002
  3.22560E+000	  9.17380E-002
  3.63520E+000	  8.11084E-002
  4.04480E+000	  7.33321E-002
  4.45440E+000	  6.63552E-002
  4.86400E+000	  6.02735E-002
  5.27360E+000	  5.31153E-002
  5.68320E+000	  4.65060E-002
  6.09280E+000	  4.14226E-002
  6.50240E+000	  3.78520E-002
  7.32160E+000	  3.35399E-002
  8.14080E+000	  2.97229E-002
  8.96000E+000	  2.85139E-002
  9.77920E+000	  2.58373E-002
  1.05984E+001	  2.33258E-002
  1.14176E+001	  1.97515E-002
  1.22368E+001	  1.62287E-002
  1.30560E+001	  1.23655E-002
  1.46944E+001	  9.32959E-003
  1.63328E+001	  6.70056E-003
  1.79712E+001	  5.33057E-003
  1.96096E+001	  5.26251E-003
  2.12480E+001	  4.82412E-003
  2.28864E+001	  3.08507E-003
  2.45248E+001	  2.06585E-003
  2.61632E+001	  5.63923E-004
  2.94400E+001	 -1.21751E-003
  3.27168E+001	 -3.55192E-003
  3.59936E+001	 -1.38633E-003
  3.92704E+001	 -3.51523E-003
  4.25472E+001	 -1.35223E-003
  4.58240E+001	  1.42779E-003
  4.91008E+001	  4.60007E-003
  5.23776E+001	  4.15542E-003
  5.89312E+001	 -2.66812E-005
  6.54848E+001	  2.57245E-003
  7.20384E+001	  4.36742E-003
  7.85920E+001	  3.95852E-003
  8.51456E+001	  1.44792E-003
  9.16992E+001	  3.16752E-003
  9.82528E+001	  4.18457E-003
  1.04806E+002	  1.55304E-003
  1.17914E+002	 -1.67614E-004
  1.31021E+002	 -1.22129E-003
  1.44128E+002	 -8.73633E-004
  1.57235E+002	  6.22277E-004
  1.70342E+002	 -2.76237E-003
  1.83450E+002	 -7.12175E-004
  1.96557E+002	 -1.98961E-003
  2.09664E+002	  5.87937E-004
  2.35878E+002	 -8.67574E-004
  2.62093E+002	  4.77246E-004
  2.88307E+002	  5.35875E-004
  3.14522E+002	 -2.68810E-003
  3.40736E+002	  4.89300E-004
  3.66950E+002	 -7.16639E-004
  3.93165E+002	  3.94914E-003
  4.19379E+002	  2.05852E-003
  4.71808E+002	  1.59306E-004
  5.24237E+002	 -2.40825E-003
  5.76666E+002	 -1.45492E-003
  6.29094E+002	  7.46255E-005
  6.81523E+002	  1.97726E-003
  7.33952E+002	 -4.71903E-004
  7.86381E+002	 -1.09122E-003
  8.38810E+002	  8.12883E-004
  9.43667E+002	  4.40877E-004
  1.04852E+003	  1.25657E-004
  1.15338E+003	 -1.51495E-003
  1.25824E+003	  2.23555E-003
  1.36310E+003	 -2.14892E-003
  1.46796E+003	  3.30475E-005
  1.57281E+003	 -1.51174E-003
  1.67767E+003	  3.54359E-004
  1.88739E+003	 -5.15302E-004
  2.09710E+003	  6.38628E-004
  2.30682E+003	  1.56320E-003
  2.51653E+003	  3.59758E-004
  2.72625E+003	 -6.62307E-004
  2.93596E+003	 -1.43248E-003
  3.14568E+003	 -1.60972E-003
  3.35539E+003	 -9.66397E-004
  3.77482E+003	 -2.06440E-004
  4.19425E+003	 -2.22508E-004
  4.61368E+003	  4.23772E-004
  5.03311E+003	 -3.25393E-004
  5.45254E+003	 -1.95385E-003
  5.87197E+003	  7.08137E-004
  6.29140E+003	  4.47111E-004

"Count Rate"
       0.11719	     692.55695
       0.23438	     559.64545
       0.35156	     430.97650
       0.46875	     389.87378
       0.58594	     553.76385
       0.70313	     719.22461
       0.82031	     505.63571
       0.93750	     466.88052
       1.05469	     493.71893
       1.17188	     401.84180
       1.28906	     537.89471
       1.40625	     448.91998
       1.52344	     493.88965
       1.64063	     498.73831
       1.75781	     460.58920
       1.87500	     416.31952
       1.99219	     394.69684
       2.10938	     541.73608
       2.22656	     546.55060
       2.34375	     468.38293
       2.46094	     463.85864
       2.57813	     478.84000
       2.69531	     573.89264
       2.81250	     426.28146
       2.92969	     489.86047
       3.04688	     528.83759
       3.16406	     485.89960
       3.28125	     432.16306
       3.39844	     563.63190
       3.51563	     415.87561
       3.63281	     467.99878
       3.75000	     542.16290
       3.86719	     430.28503
       3.98438	     501.74313
       4.10156	     495.11890
       4.21875	     492.37018
       4.33594	     411.06964
       4.45313	     525.98645
       4.57031	     461.99771
       4.68750	     455.31372
       4.80469	     504.85037
       4.92188	     382.36179
       5.03906	     420.61331
       5.15625	     527.54865
       5.27344	     512.38800
       5.39063	     704.90912
       5.50781	     452.04428
       5.62500	     427.68997
       5.74219	     541.60803
       5.85938	     475.49374
       5.97656	     419.82797
       6.09375	     543.33240
       6.21094	     467.89636
       6.32813	     504.32965
       6.44531	     499.22488
       6.56250	     420.33160
       6.67969	     565.24530
       6.79688	     499.28464
       6.91406	     533.13141
       7.03125	     618.65747
       7.14844	     455.34787
       7.26563	     663.59302
       7.38281	     542.86292
       7.50000	     376.46313
       7.61719	     478.37051
       7.73438	     517.69763
       7.85156	     421.23648
       7.96875	     407.13437
       8.08594	     511.59412
       8.20313	     492.14822
       8.32031	     480.64972
       8.43750	     393.66394
       8.55469	     395.89194
       8.67188	     438.50558
       8.78906	     430.54114
       8.90625	     533.74603
       9.02344	     530.92047
       9.14063	     484.48254
       9.25781	     474.69986
       9.37500	     498.22614
       9.49219	     480.24850
       9.60938	     506.50644
       9.72656	     533.56677
       9.84375	     379.08380
       9.96094	     407.34778
      10.07813	     388.88358
      10.19531	     446.32492
      10.31250	     435.68857
      10.42969	     437.37024
      10.54688	     468.65610
      10.66406	     449.10776
      10.78125	     457.90878
      10.89844	     434.38251
      11.01563	     493.71893
      11.13281	     427.62167
      11.25000	     460.43555
      11.36719	     417.77924
      11.48438	     466.63297
      11.60156	     473.04379
      11.71875	     502.05896
      11.83594	     477.26077
      11.95313	     480.29971
      12.07031	     452.58209
      12.18750	     413.25494
      12.30469	     462.99646
      12.42188	     521.81219
      12.53906	     507.07837
      12.65625	     472.00235
      12.77344	     475.04984
      12.89063	     542.39337
      13.00781	     511.23560
      13.12500	     414.60370
      13.24219	     487.21420
      13.35938	     529.30713
      13.47656	     442.76523
      13.59375	     447.96390
      13.71094	     440.81894
      13.82813	     453.77716
      13.94531	     467.21344
      14.06250	     441.16895
      14.17969	     760.58337
      14.29688	     444.65176
      14.41406	     442.34695
      14.53125	     376.21558
      14.64844	     375.08023
      14.76563	     463.97815
      14.88281	     410.24161
      15.00000	     428.42410
      15.11719	     516.97205
      15.23438	     564.44287
      15.35156	     443.06400
      15.46875	     492.40433
      15.58594	     428.87653
      15.70313	     500.77850
      15.82031	     469.20242
      15.93750	     403.38690
      16.05469	     438.94946
      16.17188	     508.90515
      16.28906	     552.30414
      16.40625	     455.15152
      16.52344	     695.91174
      16.64063	     364.82803
      16.75781	     361.21713
      16.87500	     419.17920
      16.99219	     459.74411
      17.10938	     427.76682
      17.22656	     428.90216
      17.34375	     393.49323
      17.46094	     480.97409
      17.57813	     477.15833
      17.69531	     428.28754
      17.81250	     463.93549
      17.92969	     451.45529
      18.04688	     464.86594
      18.16406	     508.34174
      18.28125	     570.05127
      18.39844	     384.49588
      18.51563	     414.54395
      18.63281	     571.61346
      18.75000	     499.55780
      18.86719	     546.14941
      18.98438	     437.94217
      19.10156	     439.29947
      19.21875	     444.31033
      19.33594	     406.16974
      19.45313	     410.24161
      19.57031	     452.89792
      19.68750	     446.95660
      19.80469	     468.16098
      19.92188	     602.25055
      20.03906	     591.82758
      20.15625	     487.44467
      20.27344	     523.79260
      20.39063	     545.09943
      20.50781	     565.02338
      20.62500	     531.29608
      20.74219	     514.04407
      20.85938	     448.60413
      20.97656	     649.45673
      21.09375	     495.04205
      21.21094	     519.28540
      21.32813	     492.43848
      21.44531	     457.49051
      21.56250	     490.87631
      21.67969	     494.22256
      21.79688	     501.17117
      21.91406	     473.06940
      22.03125	     442.37256
      22.14844	     535.62402
      22.26563	     353.96976
      22.38281	     500.15536
      22.50000	     523.07556
      22.61719	     512.54163
      22.73438	     439.33362
      22.85156	     522.21338
      22.96875	     422.77301
      23.08594	     456.04785
      23.20313	     420.47675
      23.32031	     436.47391
      23.43750	     433.53741
      23.55469	     459.24899
      23.67188	     374.01318
      23.78906	     439.17996
      23.90625	     466.40250
      24.02344	     461.86115
      24.14063	     577.56329
      24.25781	     376.18997
      24.37500	     504.48331
      24.49219	     437.87390
      24.60938	     406.92950
      24.72656	     471.81454
      24.84375	     620.50134
      24.96094	     459.87216
      25.07813	     485.54959
      25.19531	     477.83270
      25.31250	     513.34406
      25.42969	     396.77972
      25.54688	     490.30435
      25.66406	     501.97360
      25.78125	     413.65616
      25.89844	     441.95428
      26.01563	     505.31134
      26.13281	     522.21338
      26.25000	     384.27393
      26.36719	     382.32764
      26.48438	     407.85995
      26.60156	     465.05374
      26.71875	     454.32352
      26.83594	     568.60864
      26.95313	     524.36456
      27.07031	     468.77560
      27.18750	     412.98178
      27.30469	     557.34058
      27.42188	     502.87845
      27.53906	     540.27637
      27.65625	     504.56866
      27.77344	     430.07162
      27.89063	     499.22488
      28.00781	     446.64929
      28.12500	     465.81348
      28.24219	     417.16461
      28.35938	     423.48154
      28.47656	     413.08423
      28.59375	     562.54779
      28.71094	     427.68997
      28.82813	     515.37573
      28.94531	     404.65881
      29.06250	     454.16132
      29.17969	     446.24808
      29.29688	     560.55884
      29.41406	     519.66956
      29.53125	     441.10919
      29.64844	     458.21609
      29.76563	     476.09128
      29.88281	     527.01080
