ALV-5000/E-WIN Data
Date :	"13.03.17"
Time :	"12:11:19"
Samplename : 	""
Temperature [K] :	     298.16000
Viscosity [cp]  :	       0.89454
Refractive Index:	       1.33000
Wavelength [nm] :	     532.00000
Angle [°]       :	      80.00000
Duration [s]    :	        30
Runs            :	         1
Mode            :	"SINGLE AUTO CH0 "
MeanCR0 [kHz]   :	      12.61629
MeanCR1 [kHz]   :	       0.00000

"Correlation"
  2.00000E-004	  7.76056E-001
  4.00000E-004	  6.17709E-001
  6.00000E-004	  6.91532E-001
  8.00000E-004	  5.26766E-001
  1.00000E-003	  5.75982E-001
  1.20000E-003	  5.94170E-001
  1.40000E-003	  5.88821E-001
  1.60000E-003	  4.96808E-001
  1.80000E-003	  5.29976E-001
  2.00000E-003	  5.75982E-001
  2.20000E-003	  4.65781E-001
  2.40000E-003	  5.57793E-001
  2.60000E-003	  5.14997E-001
  2.80000E-003	  6.01660E-001
  3.00000E-003	  5.08577E-001
  3.20000E-003	  5.86146E-001
  3.60000E-003	  5.60468E-001
  4.00000E-003	  4.99483E-001
  4.40000E-003	  5.30511E-001
  4.80000E-003	  5.15532E-001
  5.20000E-003	  5.66888E-001
  5.60000E-003	  5.09112E-001
  6.00000E-003	  5.67958E-001
  6.40000E-003	  5.44152E-001
  7.20000E-003	  5.49769E-001
  8.00000E-003	  5.12055E-001
  8.80000E-003	  5.24894E-001
  9.60000E-003	  5.34790E-001
  1.04000E-002	  5.29976E-001
  1.12000E-002	  5.12322E-001
  1.20000E-002	  5.65550E-001
  1.28000E-002	  5.34644E-001
  1.44000E-002	  5.26887E-001
  1.60000E-002	  5.20200E-001
  1.76000E-002	  4.77404E-001
  1.92000E-002	  5.06024E-001
  2.08000E-002	  4.74596E-001
  2.24000E-002	  4.98000E-001
  2.40000E-002	  4.85562E-001
  2.56000E-002	  4.74702E-001
  2.88000E-002	  4.72294E-001
  3.20000E-002	  4.75705E-001
  3.52000E-002	  4.53504E-001
  3.84000E-002	  4.59389E-001
  4.16000E-002	  4.37259E-001
  4.48000E-002	  4.35922E-001
  4.80000E-002	  4.41142E-001
  5.12000E-002	  4.22338E-001
  5.76000E-002	  4.16081E-001
  6.40000E-002	  3.88461E-001
  7.04000E-002	  3.86083E-001
  7.68000E-002	  3.81298E-001
  8.32000E-002	  3.57159E-001
  8.96000E-002	  3.43652E-001
  9.60000E-002	  3.34658E-001
  1.02400E-001	  3.33630E-001
  1.15200E-001	  2.94511E-001
  1.28000E-001	  2.85233E-001
  1.40800E-001	  2.65172E-001
  1.53600E-001	  2.51313E-001
  1.66400E-001	  2.39414E-001
  1.79200E-001	  2.28812E-001
  1.92000E-001	  2.10172E-001
  2.04800E-001	  1.95777E-001
  2.30400E-001	  1.75456E-001
  2.56000E-001	  1.57325E-001
  2.81600E-001	  1.39787E-001
  3.07200E-001	  1.18212E-001
  3.32800E-001	  1.05812E-001
  3.58400E-001	  9.74449E-002
  3.84000E-001	  8.59844E-002
  4.09600E-001	  7.69865E-002
  4.60800E-001	  6.10394E-002
  5.12000E-001	  5.16469E-002
  5.63200E-001	  4.42354E-002
  6.14400E-001	  3.72585E-002
  6.65600E-001	  2.51437E-002
  7.16800E-001	  2.11495E-002
  7.68000E-001	  1.68237E-002
  8.19200E-001	  1.52059E-002
  9.21600E-001	  1.15332E-002
  1.02400E+000	  6.97890E-003
  1.12640E+000	  4.76334E-003
  1.22880E+000	  3.73946E-003
  1.33120E+000	  1.51407E-003
  1.43360E+000	 -3.74281E-004
  1.53600E+000	  5.52009E-004
  1.63840E+000	  2.09128E-003
  1.84320E+000	  1.57713E-003
  2.04800E+000	  3.06152E-003
  2.25280E+000	 -1.46223E-005
  2.45760E+000	 -1.49475E-003
  2.66240E+000	 -5.10611E-004
  2.86720E+000	 -3.50944E-003
  3.07200E+000	 -3.03035E-003
  3.22560E+000	 -2.56735E-003
  3.63520E+000	 -2.15062E-003
  4.04480E+000	 -1.63554E-003
  4.45440E+000	 -4.25919E-003
  4.86400E+000	 -3.98227E-003
  5.27360E+000	 -3.96456E-003
  5.68320E+000	  1.81710E-004
  6.09280E+000	  3.29374E-003
  6.50240E+000	  1.99225E-004
  7.32160E+000	 -2.13665E-003
  8.14080E+000	  1.22957E-003
  8.96000E+000	  1.18587E-003
  9.77920E+000	  1.09166E-004
  1.05984E+001	 -2.08568E-003
  1.14176E+001	 -2.47813E-003
  1.22368E+001	  2.02565E-003
  1.30560E+001	  3.74600E-004
  1.46944E+001	  1.01581E-003
  1.63328E+001	 -4.55609E-004
  1.79712E+001	  2.86555E-003
  1.96096E+001	 -2.00203E-004
  2.12480E+001	 -2.83353E-003
  2.28864E+001	 -3.11968E-004
  2.45248E+001	  1.06380E-003
  2.61632E+001	 -8.92428E-004
  2.94400E+001	 -4.48044E-004
  3.27168E+001	 -7.92583E-004
  3.59936E+001	  7.23028E-004
  3.92704E+001	  1.05839E-003
  4.25472E+001	  1.37750E-003
  4.58240E+001	 -2.73892E-004
  4.91008E+001	 -1.10325E-004
  5.23776E+001	 -6.42572E-004
  5.89312E+001	 -9.73941E-004
  6.54848E+001	  1.01802E-003
  7.20384E+001	 -1.13996E-004
  7.85920E+001	  4.13623E-004
  8.51456E+001	  1.22608E-003
  9.16992E+001	  4.04004E-004
  9.82528E+001	  1.12271E-004
  1.04806E+002	  2.54196E-004
  1.17914E+002	  7.51365E-004
  1.31021E+002	 -5.28509E-004
  1.44128E+002	 -4.76995E-004
  1.57235E+002	 -3.32856E-006
  1.70342E+002	 -2.30521E-005
  1.83450E+002	 -2.99791E-004
  1.96557E+002	 -2.29112E-004
  2.09664E+002	  2.23617E-004
  2.35878E+002	 -1.42893E-004
  2.62093E+002	 -5.06081E-004
  2.88307E+002	  2.02218E-004
  3.14522E+002	 -6.45170E-004
  3.40736E+002	  2.71020E-004
  3.66950E+002	  1.39425E-005
  3.93165E+002	 -9.86397E-006
  4.19379E+002	  9.80521E-005
  4.71808E+002	 -1.20739E-004
  5.24237E+002	  3.72248E-004
  5.76666E+002	 -3.67533E-005
  6.29094E+002	 -3.19809E-004
  6.81523E+002	  2.62184E-004
  7.33952E+002	 -4.77847E-005
  7.86381E+002	 -1.06059E-004
  8.38810E+002	  1.00490E-004
  9.43667E+002	  1.59543E-004
  1.04852E+003	 -2.93169E-004
  1.15338E+003	 -2.24969E-004
  1.25824E+003	  1.16833E-005
  1.36310E+003	 -4.78517E-005
  1.46796E+003	  2.68312E-004
  1.57281E+003	 -2.77155E-004
  1.67767E+003	 -3.87141E-006
  1.88739E+003	 -2.81552E-004
  2.09710E+003	 -3.91658E-005
  2.30682E+003	 -6.84032E-005
  2.51653E+003	 -1.16789E-004
  2.72625E+003	 -9.38185E-006
  2.93596E+003	  2.91410E-004
  3.14568E+003	  3.77392E-005
  3.35539E+003	 -3.69676E-005
  3.77482E+003	  1.39229E-004
  4.19425E+003	 -5.31297E-007
  4.61368E+003	 -7.67216E-006
  5.03311E+003	 -3.98913E-006
  5.45254E+003	 -5.61481E-005
  5.87197E+003	 -5.82877E-005
  6.29140E+003	 -1.39488E-004

"Count Rate"
       0.11719	      11.46437
       0.23438	      12.17289
       0.35156	      11.98509
       0.46875	      12.44605
       0.58594	      12.69361
       0.70313	      13.02652
       0.82031	      12.59970
       0.93750	      11.86558
       1.05469	      13.43627
       1.17188	      12.57410
       1.28906	      12.30947
       1.40625	      13.06067
       1.52344	      12.78751
       1.64063	      12.76190
       1.75781	      14.37527
       1.87500	      13.47042
       1.99219	      12.51434
       2.10938	      12.49727
       2.22656	      11.98509
       2.34375	      12.52288
       2.46094	      14.23015
       2.57813	      11.99362
       2.69531	      12.85580
       2.81250	      12.41190
       2.92969	      14.22162
       3.04688	      12.58263
       3.16406	      11.89118
       3.28125	      12.43751
       3.39844	      14.21308
       3.51563	      12.52288
       3.63281	      11.56680
       3.75000	      12.84726
       3.86719	      12.19849
       3.98438	      11.38754
       4.10156	      11.40461
       4.21875	      12.47166
       4.33594	      12.82165
       4.45313	      13.79480
       4.57031	      13.69236
       4.68750	      12.93262
       4.80469	      13.45334
       4.92188	      12.10459
       5.03906	      11.90826
       5.15625	      12.09606
       5.27344	      12.51434
       5.39063	      11.84850
       5.50781	      11.22535
       5.62500	      11.78021
       5.74219	      12.36069
       5.85938	      13.63261
       5.97656	      12.97531
       6.09375	      13.26554
       6.21094	      11.97655
       6.32813	      13.44481
       6.44531	      12.00216
       6.56250	      13.09482
       6.67969	      12.69361
       6.79688	      13.79480
       6.91406	      12.28386
       7.03125	      11.94240
       7.14844	      12.32654
       7.26563	      12.71068
       7.38281	      12.29239
       7.50000	      12.65092
       7.61719	      12.44605
       7.73438	      13.22286
       7.85156	      12.65092
       7.96875	      12.24971
       8.08594	      12.72775
       8.20313	      12.30947
       8.32031	      12.71921
       8.43750	      12.94970
       8.55469	      12.94116
       8.67188	      11.86558
       8.78906	      12.25825
       8.90625	      12.07045
       9.02344	      13.33383
       9.14063	      11.85704
       9.25781	      13.92284
       9.37500	      12.53995
       9.49219	      14.11065
       9.60938	      12.65092
       9.72656	      12.95823
       9.84375	      12.56556
       9.96094	      12.65946
      10.07813	      13.32530
      10.19531	      13.10335
      10.31250	      12.61678
      10.42969	      12.51434
      10.54688	      12.11313
      10.66406	      13.06921
      10.78125	      12.86433
      10.89844	      12.27532
      11.01563	      12.88141
      11.13281	      11.94240
      11.25000	      12.18996
      11.36719	      11.73753
      11.48438	      13.18018
      11.60156	      13.35944
      11.71875	      11.07169
      11.83594	      12.07045
      11.95313	      13.04360
      12.07031	      11.73753
      12.18750	      12.92409
      12.30469	      12.10459
      12.42188	      13.66675
      12.53906	      13.46188
      12.65625	      11.71192
      12.77344	      13.00945
      12.89063	      12.75336
      13.00781	      12.75336
      13.12500	      12.30947
      13.24219	      13.58993
      13.35938	      13.43627
      13.47656	      12.51434
      13.59375	      13.32530
      13.71094	      12.60824
      13.82813	      12.27532
      13.94531	      12.97531
      14.06250	      12.51434
      14.17969	      12.36069
      14.29688	      12.32654
      14.41406	      12.53141
      14.53125	      12.51434
      14.64844	      11.76314
      14.76563	      12.73629
      14.88281	      12.45459
      15.00000	      12.10459
      15.11719	      11.83143
      15.23438	      12.14728
      15.35156	      13.30822
      15.46875	      12.95823
      15.58594	      12.53995
      15.70313	      11.02901
      15.82031	      12.03630
      15.93750	      11.95094
      16.05469	      12.49727
      16.17188	      12.88141
      16.28906	      12.63385
      16.40625	      12.38630
      16.52344	      12.60824
      16.64063	      12.18996
      16.75781	      12.65092
      16.87500	      13.36798
      16.99219	      12.76190
      17.10938	      12.48873
      17.22656	      12.42044
      17.34375	      11.90826
      17.46094	      12.34361
      17.57813	      11.47290
      17.69531	      12.94116
      17.81250	      12.68507
      17.92969	      13.00945
      18.04688	      12.42898
      18.16406	      12.38630
      18.28125	      11.65217
      18.39844	      14.17894
      18.51563	      12.39483
      18.63281	      12.18142
      18.75000	      13.20579
      18.86719	      12.40337
      18.98438	      13.93138
      19.10156	      12.40337
      19.21875	      11.83143
      19.33594	      12.31800
      19.45313	      12.95823
      19.57031	      12.44605
      19.68750	      12.47166
      19.80469	      12.01069
      19.92188	      12.55702
      20.03906	      12.37776
      20.15625	      11.43022
      20.27344	      12.19849
      20.39063	      12.30947
      20.50781	      12.65092
      20.62500	      13.05213
      20.74219	      12.60824
      20.85938	      12.50581
      20.97656	      11.84850
      21.09375	      12.06191
      21.21094	      13.02652
      21.32813	      13.14603
      21.44531	      12.80458
      21.56250	      12.07045
      21.67969	      13.78626
      21.79688	      13.48749
      21.91406	      13.35944
      22.03125	      13.34237
      22.14844	      12.24118
      22.26563	      12.62531
      22.38281	      12.77043
      22.50000	      13.01799
      22.61719	      11.60095
      22.73438	      12.91555
      22.85156	      12.41190
      22.96875	      12.23264
      23.08594	      11.60095
      23.20313	      12.42044
      23.32031	      12.07045
      23.43750	      11.82289
      23.55469	      12.85580
      23.67188	      13.36798
      23.78906	      12.43751
      23.90625	      12.80458
      24.02344	      10.49975
      24.14063	      13.64114
      24.25781	      13.00091
      24.37500	      13.42773
      24.49219	      12.42898
      24.60938	      12.18996
      24.72656	      12.30947
      24.84375	      12.93262
      24.96094	      13.35944
      25.07813	      11.75460
      25.19531	      13.39359
      25.31250	      12.52288
      25.42969	      12.13874
      25.54688	      12.51434
      25.66406	      13.41920
      25.78125	      12.38630
      25.89844	      13.20579
      26.01563	      12.94970
      26.13281	      13.20579
      26.25000	      12.38630
      26.36719	      12.26679
      26.48438	      12.28386
      26.60156	      13.16311
      26.71875	      13.23993
      26.83594	      12.04484
      26.95313	      13.25701
      27.07031	      13.78626
      27.18750	      11.26803
      27.30469	      12.79604
      27.42188	      14.23015
      27.53906	      12.50581
      27.65625	      12.24971
      27.77344	      12.58263
      27.89063	      12.53141
      28.00781	      13.88870
      28.12500	      12.59117
      28.24219	      12.14728
      28.35938	      12.36069
      28.47656	      13.64114
      28.59375	      13.38505
      28.71094	      12.99238
      28.82813	      12.80458
      28.94531	      12.58263
      29.06250	      12.44605
      29.17969	      12.41190
      29.29688	      12.71921
      29.41406	      12.03630
      29.53125	      12.78751
      29.64844	      13.41920
      29.76563	      13.47042
      29.88281	      12.15581
