ALV-5000/E-WIN Data
Date :	"13.03.17"
Time :	"11:33:27"
Samplename : 	""
Temperature [K] :	     298.16000
Viscosity [cp]  :	       0.89454
Refractive Index:	       1.33000
Wavelength [nm] :	     532.00000
Angle [°]       :	      80.00000
Duration [s]    :	        30
Runs            :	         1
Mode            :	"SINGLE AUTO CH0 "
MeanCR0 [kHz]   :	      44.75219
MeanCR1 [kHz]   :	       0.00000

"Correlation"
  2.00000E-004	  5.98180E-001
  4.00000E-004	  5.82279E-001
  6.00000E-004	  5.71310E-001
  8.00000E-004	  5.63402E-001
  1.00000E-003	  5.46906E-001
  1.20000E-003	  5.71225E-001
  1.40000E-003	  5.52943E-001
  1.60000E-003	  5.44950E-001
  1.80000E-003	  5.39848E-001
  2.00000E-003	  5.45546E-001
  2.20000E-003	  5.58896E-001
  2.40000E-003	  5.38403E-001
  2.60000E-003	  5.39423E-001
  2.80000E-003	  5.67229E-001
  3.00000E-003	  5.47416E-001
  3.20000E-003	  5.43629E-001
  3.60000E-003	  5.41503E-001
  4.00000E-003	  5.47668E-001
  4.40000E-003	  5.42778E-001
  4.80000E-003	  5.38442E-001
  5.20000E-003	  5.49028E-001
  5.60000E-003	  5.51069E-001
  6.00000E-003	  5.46435E-001
  6.40000E-003	  5.46481E-001
  7.20000E-003	  5.34002E-001
  8.00000E-003	  5.45992E-001
  8.80000E-003	  5.42123E-001
  9.60000E-003	  5.38637E-001
  1.04000E-002	  5.35172E-001
  1.12000E-002	  5.42803E-001
  1.20000E-002	  5.25839E-001
  1.28000E-002	  5.23694E-001
  1.44000E-002	  5.34269E-001
  1.60000E-002	  5.34875E-001
  1.76000E-002	  5.19963E-001
  1.92000E-002	  5.19985E-001
  2.08000E-002	  5.32731E-001
  2.24000E-002	  5.16404E-001
  2.40000E-002	  5.16351E-001
  2.56000E-002	  5.14206E-001
  2.88000E-002	  5.09455E-001
  3.20000E-002	  5.05405E-001
  3.52000E-002	  5.01850E-001
  3.84000E-002	  4.95923E-001
  4.16000E-002	  4.96972E-001
  4.48000E-002	  4.91514E-001
  4.80000E-002	  4.80019E-001
  5.12000E-002	  4.81235E-001
  5.76000E-002	  4.75186E-001
  6.40000E-002	  4.66263E-001
  7.04000E-002	  4.58896E-001
  7.68000E-002	  4.46810E-001
  8.32000E-002	  4.38135E-001
  8.96000E-002	  4.33993E-001
  9.60000E-002	  4.26892E-001
  1.02400E-001	  4.18530E-001
  1.15200E-001	  4.02397E-001
  1.28000E-001	  3.86347E-001
  1.40800E-001	  3.76544E-001
  1.53600E-001	  3.64160E-001
  1.66400E-001	  3.49429E-001
  1.79200E-001	  3.39767E-001
  1.92000E-001	  3.27362E-001
  2.04800E-001	  3.15130E-001
  2.30400E-001	  2.93033E-001
  2.56000E-001	  2.75260E-001
  2.81600E-001	  2.57472E-001
  3.07200E-001	  2.39631E-001
  3.32800E-001	  2.23164E-001
  3.58400E-001	  2.07034E-001
  3.84000E-001	  1.93964E-001
  4.09600E-001	  1.81074E-001
  4.60800E-001	  1.57819E-001
  5.12000E-001	  1.38973E-001
  5.63200E-001	  1.21083E-001
  6.14400E-001	  1.05931E-001
  6.65600E-001	  9.33182E-002
  7.16800E-001	  8.23484E-002
  7.68000E-001	  7.24695E-002
  8.19200E-001	  6.44068E-002
  9.21600E-001	  4.90951E-002
  1.02400E+000	  3.83947E-002
  1.12640E+000	  3.00073E-002
  1.22880E+000	  2.25959E-002
  1.33120E+000	  1.87532E-002
  1.43360E+000	  1.39206E-002
  1.53600E+000	  1.17718E-002
  1.63840E+000	  9.85559E-003
  1.84320E+000	  6.88873E-003
  2.04800E+000	  4.03870E-003
  2.25280E+000	  2.52885E-003
  2.45760E+000	  1.52458E-003
  2.66240E+000	 -3.17069E-005
  2.86720E+000	 -2.43852E-004
  3.07200E+000	 -8.04587E-004
  3.22560E+000	  1.41926E-004
  3.63520E+000	  7.62170E-004
  4.04480E+000	 -8.15806E-004
  4.45440E+000	 -1.03689E-003
  4.86400E+000	 -2.39160E-003
  5.27360E+000	 -2.75809E-003
  5.68320E+000	 -2.12253E-004
  6.09280E+000	 -2.02326E-003
  6.50240E+000	 -2.68388E-003
  7.32160E+000	 -1.17605E-003
  8.14080E+000	  1.39599E-003
  8.96000E+000	  3.58185E-003
  9.77920E+000	  2.98781E-003
  1.05984E+001	  3.74796E-004
  1.14176E+001	  3.25595E-004
  1.22368E+001	  7.89207E-004
  1.30560E+001	 -8.42805E-004
  1.46944E+001	  2.38399E-005
  1.63328E+001	 -7.01509E-004
  1.79712E+001	 -5.05540E-004
  1.96096E+001	 -2.71385E-003
  2.12480E+001	  1.82784E-003
  2.28864E+001	  1.38619E-004
  2.45248E+001	  1.76514E-003
  2.61632E+001	 -1.13977E-003
  2.94400E+001	 -1.67350E-003
  3.27168E+001	  1.32344E-003
  3.59936E+001	 -2.24674E-003
  3.92704E+001	 -4.44290E-004
  4.25472E+001	 -7.35107E-004
  4.58240E+001	 -9.35623E-004
  4.91008E+001	 -6.55550E-004
  5.23776E+001	 -4.89557E-004
  5.89312E+001	  1.22633E-003
  6.54848E+001	  3.43267E-004
  7.20384E+001	  5.50747E-006
  7.85920E+001	  1.24807E-003
  8.51456E+001	  1.44631E-003
  9.16992E+001	  1.68105E-003
  9.82528E+001	 -2.23875E-004
  1.04806E+002	  8.47084E-004
  1.17914E+002	 -1.46878E-003
  1.31021E+002	 -6.20117E-004
  1.44128E+002	 -5.99987E-004
  1.57235E+002	  9.00309E-004
  1.70342E+002	  1.94506E-004
  1.83450E+002	  2.44784E-004
  1.96557E+002	 -3.03856E-004
  2.09664E+002	 -2.55464E-004
  2.35878E+002	  3.09239E-004
  2.62093E+002	  1.22551E-004
  2.88307E+002	  2.85538E-004
  3.14522E+002	  5.60116E-004
  3.40736E+002	  7.15468E-004
  3.66950E+002	 -1.10375E-004
  3.93165E+002	 -1.20162E-005
  4.19379E+002	  5.17731E-004
  4.71808E+002	 -2.14368E-004
  5.24237E+002	  3.72682E-004
  5.76666E+002	  1.09378E-004
  6.29094E+002	 -1.32687E-004
  6.81523E+002	  4.50755E-004
  7.33952E+002	 -3.02678E-005
  7.86381E+002	 -3.33595E-005
  8.38810E+002	  1.09412E-004
  9.43667E+002	  3.09989E-004
  1.04852E+003	 -1.03659E-004
  1.15338E+003	 -1.44108E-004
  1.25824E+003	  3.17286E-004
  1.36310E+003	  1.88499E-005
  1.46796E+003	 -1.53892E-004
  1.57281E+003	  1.95779E-004
  1.67767E+003	  2.45392E-004
  1.88739E+003	 -4.02016E-005
  2.09710E+003	  2.46432E-004
  2.30682E+003	 -2.70447E-004
  2.51653E+003	  1.16900E-004
  2.72625E+003	 -3.67704E-005
  2.93596E+003	  2.50174E-004
  3.14568E+003	  4.41873E-005
  3.35539E+003	  4.21204E-005
  3.77482E+003	 -1.24653E-004
  4.19425E+003	 -1.57915E-004
  4.61368E+003	  2.02459E-004
  5.03311E+003	 -5.45714E-005
  5.45254E+003	 -7.05337E-005
  5.87197E+003	  2.63230E-005
  6.29140E+003	 -8.27889E-005

"Count Rate"
       0.11719	      42.65632
       0.23438	      44.99529
       0.35156	      44.69651
       0.46875	      46.65988
       0.58594	      48.50374
       0.70313	      46.16477
       0.82031	      44.55140
       0.93750	      47.34279
       1.05469	      46.50623
       1.17188	      46.46355
       1.28906	      49.34031
       1.40625	      42.41730
       1.52344	      43.53556
       1.64063	      47.35133
       1.75781	      44.90992
       1.87500	      42.18682
       1.99219	      42.65632
       2.10938	      47.16353
       2.22656	      44.54286
       2.34375	      46.57452
       2.46094	      46.62574
       2.57813	      46.47208
       2.69531	      42.11853
       2.81250	      45.49894
       2.92969	      44.96968
       3.04688	      42.25511
       3.16406	      46.30989
       3.28125	      45.67820
       3.39844	      42.48559
       3.51563	      45.32821
       3.63281	      49.54518
       3.75000	      44.44896
       3.86719	      43.89409
       3.98438	      42.55388
       4.10156	      44.57700
       4.21875	      43.48435
       4.33594	      38.69543
       4.45313	      46.42940
       4.57031	      43.45874
       4.68750	      40.07833
       4.80469	      44.88432
       4.92188	      44.79041
       5.03906	      42.74168
       5.15625	      43.74044
       5.27344	      45.41357
       5.39063	      43.76605
       5.50781	      47.47084
       5.62500	      47.18060
       5.74219	      41.50391
       5.85938	      45.69527
       5.97656	      42.00755
       6.09375	      52.35365
       6.21094	      40.79539
       6.32813	      42.98070
       6.44531	      47.73547
       6.56250	      46.01965
       6.67969	      45.27699
       6.79688	      49.46835
       6.91406	      41.14538
       7.03125	      43.18557
       7.14844	      45.44772
       7.26563	      46.16477
       7.38281	      41.65756
       7.50000	      41.68317
       7.61719	      41.99048
       7.73438	      45.52454
       7.85156	      46.98426
       7.96875	      44.46603
       8.08594	      44.32091
       8.20313	      44.79895
       8.32031	      44.07336
       8.43750	      40.81246
       8.55469	      44.68798
       8.67188	      46.47208
       8.78906	      44.44896
       8.90625	      46.57452
       9.02344	      46.57452
       9.14063	      48.77691
       9.25781	      46.77939
       9.37500	      43.81726
       9.49219	      48.93910
       9.60938	      43.12582
       9.72656	      42.52827
       9.84375	      41.95633
       9.96094	      46.18185
      10.07813	      47.76108
      10.19531	      39.71127
      10.31250	      41.71732
      10.42969	      42.81851
      10.54688	      45.03797
      10.66406	      42.46852
      10.78125	      45.89161
      10.89844	      48.16228
      11.01563	      45.21723
      11.13281	      47.06963
      11.25000	      44.20140
      11.36719	      47.37694
      11.48438	      42.45998
      11.60156	      48.35009
      11.71875	      46.05380
      11.83594	      45.21723
      11.95313	      43.70629
      12.07031	      46.71110
      12.18750	      41.45269
      12.30469	      47.93180
      12.42188	      40.13808
      12.53906	      42.67339
      12.65625	      42.96363
      12.77344	      45.31113
      12.89063	      50.80003
      13.00781	      40.77831
      13.12500	      44.64529
      13.24219	      42.63924
      13.35938	      49.31470
      13.47656	      44.59408
      13.59375	      46.05380
      13.71094	      45.49894
      13.82813	      47.64157
      13.94531	      44.35506
      14.06250	      46.11355
      14.17969	      46.63427
      14.29688	      43.54410
      14.41406	      46.65988
      14.53125	      47.03548
      14.64844	      45.31967
      14.76563	      50.56101
      14.88281	      46.80500
      15.00000	      46.64281
      15.11719	      49.10983
      15.23438	      43.03192
      15.35156	      43.91117
      15.46875	      43.26240
      15.58594	      44.52579
      15.70313	      47.25743
      15.82031	      47.18060
      15.93750	      44.27823
      16.05469	      43.46727
      16.17188	      45.12333
      16.28906	      44.84163
      16.40625	      53.13046
      16.52344	      45.35382
      16.64063	      45.49894
      16.75781	      44.80749
      16.87500	      45.57576
      16.99219	      40.23198
      17.10938	      42.88680
      17.22656	      44.55993
      17.34375	      46.30135
      17.46094	      43.96238
      17.57813	      46.24160
      17.69531	      46.03673
      17.81250	      46.43793
      17.92969	      44.73066
      18.04688	      45.49894
      18.16406	      44.61115
      18.28125	      45.60137
      18.39844	      44.29530
      18.51563	      42.97216
      18.63281	      42.51120
      18.75000	      42.03316
      18.86719	      43.29655
      18.98438	      43.25386
      19.10156	      46.41233
      19.21875	      42.60510
      19.33594	      50.47565
      19.45313	      45.90014
      19.57031	      45.14041
      19.68750	      48.96471
      19.80469	      49.94639
      19.92188	      45.83185
      20.03906	      44.38920
      20.15625	      44.85017
      20.27344	      45.67820
      20.39063	      45.65259
      20.50781	      41.76853
      20.62500	      45.95136
      20.74219	      47.11231
      20.85938	      41.19659
      20.97656	      44.53432
      21.09375	      47.84644
      21.21094	      46.10502
      21.32813	      48.58057
      21.44531	      46.50623
      21.56250	      41.45269
      21.67969	      46.54891
      21.79688	      41.57220
      21.91406	      43.89409
      22.03125	      44.54286
      22.14844	      42.60510
      22.26563	      45.62698
      22.38281	      40.31735
      22.50000	      43.72337
      22.61719	      48.52081
      22.73438	      47.90620
      22.85156	      47.53913
      22.96875	      49.79274
      23.08594	      46.59159
      23.20313	      41.17952
      23.32031	      41.78561
      23.43750	      45.89161
      23.55469	      44.61115
      23.67188	      43.80873
      23.78906	      41.42708
      23.90625	      46.42940
      24.02344	      48.15375
      24.14063	      44.92699
      24.25781	      46.77939
      24.37500	      43.49288
      24.49219	      42.02462
      24.60938	      44.37213
      24.72656	      40.91489
      24.84375	      41.66610
      24.96094	      47.66718
      25.07813	      43.82580
      25.19531	      44.38067
      25.31250	      44.38920
      25.42969	      39.66858
      25.54688	      42.32340
      25.66406	      40.81246
      25.78125	      41.76853
      25.89844	      42.54535
      26.01563	      44.52579
      26.13281	      41.29050
      26.25000	      41.43562
      26.36719	      42.09291
      26.48438	      41.11123
      26.60156	      41.23074
      26.71875	      40.56490
      26.83594	      45.09772
      26.95313	      46.25014
      27.07031	      43.24533
      27.18750	      43.19411
      27.30469	      45.57576
      27.42188	      37.73936
      27.53906	      49.39153
      27.65625	      44.90139
      27.77344	      50.91954
      27.89063	      43.01485
      28.00781	      41.41000
      28.12500	      47.59888
      28.24219	      39.25030
      28.35938	      45.41357
      28.47656	      47.56474
      28.59375	      41.00880
      28.71094	      40.01004
      28.82813	      43.76605
      28.94531	      39.75395
      29.06250	      51.15856
      29.17969	      45.80624
      29.29688	      38.04667
      29.41406	      48.37569
      29.53125	      45.10626
      29.64844	      49.44275
      29.76563	      42.83558
      29.88281	      43.34776
