pulse length [s]	intensity [a.u.]
1e-006	2859560.3577
3.5789e-006	10306676.1856
6.1579e-006	16285996.9706
8.7368e-006	20558997.6309
1.1316e-005	22993173.4487
1.3895e-005	24182211.8901
1.6474e-005	24141609.04
1.9053e-005	22649272.3
2.1632e-005	19442191.5832
2.4211e-005	15069812.6433
2.6789e-005	8839731.2253
2.9368e-005	6703260.7175
3.1947e-005	2619066.6933
3.4526e-005	7110617.8764
3.7105e-005	10942300.5274
3.9684e-005	15774300.1193
4.2263e-005	19373743.4522
4.4842e-005	21412930.7289
4.7421e-005	22213320.2112
5e-005	21711568.9613
