time [s]	intensity [a.u.]
1e-005	32819453.8243
0.094529	29139943.2051
0.18905	27154381.6107
0.28357	25146348.893
0.37809	22899305.1675
0.47261	20839351.9255
0.56712	19116717.7258
0.66164	16822793.3556
0.75616	15360106.0736
0.85068	13919197.4924
0.9452	12007873.0934
1.0397	10757351.4194
1.1604	8729688.5861
1.295	6908187.8574
1.4452	4384424.1799
1.6129	2399819.6594
1.8001	1041599.8801
2.0089	2836462.8458
2.242	5631775.1157
2.5022	8268522.128
2.7925	11173090.7893
3.1165	14223242.5129
3.4781	16728084.0306
3.8816	19488172.6604
4.332	22416007.4789
4.8346	24494502.3054
5.3956	26726956.6627
6.0216	28694742.8164
6.7203	30647117.296
7.5	0
