time [s]	intensity [a.u.]
1e-005	29800607.1236
0.0079303	21403629.3936
0.015851	14891265.0258
0.023771	9516573.1904
0.031691	4444334.1609
0.039611	630637.1328
0.047532	3245064.2394
0.055452	7611358.3021
0.065377	11136459.4868
0.07708	14697152.4066
0.090876	18019905.8237
0.10714	21038332.0953
0.12632	24479895.0497
0.14893	26464588.2896
0.17559	28238686.995
0.20702	29982536.8684
0.24408	30811268.5055
0.28776	31777972.7114
0.33927	31020266.9131
0.4	0
