time [s]	intensity [a.u.]
1e-005	32410780.0933
0.0080071	24041766.923
0.016004	17545326.0933
0.024001	11132852.2164
0.031998	5871824.263
0.039995	1544232.2936
0.047992	3153036.0538
0.05599	6412171.7908
0.063987	9796194.4422
0.071984	12565172.2063
0.079981	15233959.8913
0.087978	17358258.7869
0.095975	19143905.5431
0.10397	21387263.4589
0.11423	23045702.4322
0.1255	24835413.5332
0.13788	26619198.3063
0.15149	27917510.7389
0.16643	29387900.606
0.18285	29643238.7869
0.20089	31375807.1623
0.22071	31782976.4677
0.24249	32741440.1015
0.26641	32468238.573
0.2927	33560418.6066
0.32158	33214015.4702
0.3533	34008148.2878
0.38816	33318301.1069
0.42646	34002445.3449
0.46853	33523069.2465
0.51476	34055026.096
0.56555	33949000.8611
0.62135	33965836.1802
0.68265	34112850.4545
0.75	0
