ALV-5000/E-WIN Data
Date :	"13.03.17"
Time :	"12:09:14"
Samplename : 	""
Temperature [K] :	     298.16000
Viscosity [cp]  :	       0.89454
Refractive Index:	       1.33000
Wavelength [nm] :	     532.00000
Angle [°]       :	      80.00000
Duration [s]    :	        30
Runs            :	         1
Mode            :	"SINGLE AUTO CH0 "
MeanCR0 [kHz]   :	      23.25954
MeanCR1 [kHz]   :	       0.00000

"Correlation"
  2.00000E-004	  6.36866E-001
  4.00000E-004	  6.46310E-001
  6.00000E-004	  5.63207E-001
  8.00000E-004	  5.87446E-001
  1.00000E-003	  5.91223E-001
  1.20000E-003	  5.53449E-001
  1.40000E-003	  5.69188E-001
  1.60000E-003	  5.52190E-001
  1.80000E-003	  5.44635E-001
  2.00000E-003	  5.49042E-001
  2.20000E-003	  5.38969E-001
  2.40000E-003	  5.04028E-001
  2.60000E-003	  5.25119E-001
  2.80000E-003	  5.17249E-001
  3.00000E-003	  5.58486E-001
  3.20000E-003	  5.33141E-001
  3.60000E-003	  5.71859E-001
  4.00000E-003	  5.59426E-001
  4.40000E-003	  5.21809E-001
  4.80000E-003	  5.62573E-001
  5.20000E-003	  5.64147E-001
  5.60000E-003	  5.49982E-001
  6.00000E-003	  5.67925E-001
  6.40000E-003	  5.55333E-001
  7.20000E-003	  5.58560E-001
  8.00000E-003	  5.58166E-001
  8.80000E-003	  5.56750E-001
  9.60000E-003	  5.34794E-001
  1.04000E-002	  5.34479E-001
  1.12000E-002	  5.37548E-001
  1.20000E-002	  5.45496E-001
  1.28000E-002	  5.34759E-001
  1.44000E-002	  5.37356E-001
  1.60000E-002	  5.22876E-001
  1.76000E-002	  5.37749E-001
  1.92000E-002	  5.22522E-001
  2.08000E-002	  5.07845E-001
  2.24000E-002	  5.32752E-001
  2.40000E-002	  5.12764E-001
  2.56000E-002	  5.12869E-001
  2.88000E-002	  5.02815E-001
  3.20000E-002	  5.07025E-001
  3.52000E-002	  4.97519E-001
  3.84000E-002	  4.94568E-001
  4.16000E-002	  4.85734E-001
  4.48000E-002	  4.78238E-001
  4.80000E-002	  4.82372E-001
  5.12000E-002	  4.70983E-001
  5.76000E-002	  4.57634E-001
  6.40000E-002	  4.50404E-001
  7.04000E-002	  4.33022E-001
  7.68000E-002	  4.35444E-001
  8.32000E-002	  4.23640E-001
  8.96000E-002	  4.13545E-001
  9.60000E-002	  4.12502E-001
  1.02400E-001	  3.97788E-001
  1.15200E-001	  3.82863E-001
  1.28000E-001	  3.70208E-001
  1.40800E-001	  3.52941E-001
  1.53600E-001	  3.41451E-001
  1.66400E-001	  3.27214E-001
  1.79200E-001	  3.08757E-001
  1.92000E-001	  2.96618E-001
  2.04800E-001	  2.86493E-001
  2.30400E-001	  2.62852E-001
  2.56000E-001	  2.45138E-001
  2.81600E-001	  2.22763E-001
  3.07200E-001	  2.07280E-001
  3.32800E-001	  1.94736E-001
  3.58400E-001	  1.79988E-001
  3.84000E-001	  1.69548E-001
  4.09600E-001	  1.54413E-001
  4.60800E-001	  1.34602E-001
  5.12000E-001	  1.14903E-001
  5.63200E-001	  9.98382E-002
  6.14400E-001	  8.59911E-002
  6.65600E-001	  7.32988E-002
  7.16800E-001	  6.36059E-002
  7.68000E-001	  5.74931E-002
  8.19200E-001	  5.04086E-002
  9.21600E-001	  3.79551E-002
  1.02400E+000	  2.90943E-002
  1.12640E+000	  2.28010E-002
  1.22880E+000	  1.85970E-002
  1.33120E+000	  1.53115E-002
  1.43360E+000	  1.09305E-002
  1.53600E+000	  1.01294E-002
  1.63840E+000	  8.68565E-003
  1.84320E+000	  6.59945E-003
  2.04800E+000	  3.88555E-003
  2.25280E+000	  2.37897E-003
  2.45760E+000	 -1.07164E-003
  2.66240E+000	 -1.61349E-003
  2.86720E+000	 -4.97459E-004
  3.07200E+000	  1.30967E-003
  3.22560E+000	 -6.72912E-004
  3.63520E+000	  7.96501E-004
  4.04480E+000	  2.28175E-003
  4.45440E+000	  2.05780E-003
  4.86400E+000	  3.02018E-003
  5.27360E+000	  1.51431E-003
  5.68320E+000	  1.42481E-003
  6.09280E+000	  1.18164E-003
  6.50240E+000	  1.59970E-003
  7.32160E+000	  2.27549E-004
  8.14080E+000	 -2.16307E-003
  8.96000E+000	 -2.08861E-003
  9.77920E+000	  2.76583E-004
  1.05984E+001	  2.08177E-003
  1.14176E+001	  2.48979E-003
  1.22368E+001	  2.92114E-004
  1.30560E+001	 -1.02971E-003
  1.46944E+001	 -3.55602E-004
  1.63328E+001	 -1.35008E-003
  1.79712E+001	 -2.27288E-003
  1.96096E+001	 -6.73869E-004
  2.12480E+001	 -2.20772E-003
  2.28864E+001	 -3.86355E-003
  2.45248E+001	  3.34111E-003
  2.61632E+001	  7.54409E-004
  2.94400E+001	 -3.90419E-004
  3.27168E+001	 -2.86410E-004
  3.59936E+001	 -7.22264E-004
  3.92704E+001	  4.26872E-004
  4.25472E+001	  2.09283E-004
  4.58240E+001	 -1.18638E-003
  4.91008E+001	  1.36173E-004
  5.23776E+001	  2.52773E-004
  5.89312E+001	  4.18319E-004
  6.54848E+001	  8.47767E-005
  7.20384E+001	  1.31243E-003
  7.85920E+001	 -1.26785E-003
  8.51456E+001	  2.32751E-004
  9.16992E+001	  5.23705E-005
  9.82528E+001	  2.45406E-003
  1.04806E+002	  1.08896E-003
  1.17914E+002	 -5.17202E-004
  1.31021E+002	  1.08788E-004
  1.44128E+002	 -4.46615E-004
  1.57235E+002	 -7.73987E-004
  1.70342E+002	 -1.51009E-003
  1.83450E+002	  2.02780E-004
  1.96557E+002	 -4.08572E-004
  2.09664E+002	  7.16040E-005
  2.35878E+002	  4.12122E-005
  2.62093E+002	 -8.33099E-005
  2.88307E+002	  5.62105E-004
  3.14522E+002	  9.25795E-004
  3.40736E+002	  7.23949E-004
  3.66950E+002	 -2.47236E-004
  3.93165E+002	  5.15451E-004
  4.19379E+002	  3.28369E-004
  4.71808E+002	  2.51531E-004
  5.24237E+002	 -2.53505E-004
  5.76666E+002	 -4.16752E-004
  6.29094E+002	  6.02534E-006
  6.81523E+002	  1.34061E-004
  7.33952E+002	 -2.85316E-004
  7.86381E+002	  5.72442E-004
  8.38810E+002	  9.85127E-005
  9.43667E+002	 -5.81756E-004
  1.04852E+003	  1.05621E-004
  1.15338E+003	  5.84670E-005
  1.25824E+003	  1.12685E-004
  1.36310E+003	  1.47871E-004
  1.46796E+003	  3.35915E-004
  1.57281E+003	 -1.13680E-004
  1.67767E+003	  1.20033E-004
  1.88739E+003	 -1.31389E-004
  2.09710E+003	 -3.90956E-005
  2.30682E+003	  1.34768E-004
  2.51653E+003	  2.73194E-004
  2.72625E+003	  8.17181E-005
  2.93596E+003	  1.65135E-004
  3.14568E+003	 -1.43011E-004
  3.35539E+003	 -8.25940E-006
  3.77482E+003	  1.06502E-004
  4.19425E+003	  2.45475E-004
  4.61368E+003	 -2.07123E-004
  5.03311E+003	 -2.65875E-004
  5.45254E+003	 -9.68992E-005
  5.87197E+003	  6.57310E-005
  6.29140E+003	  1.76841E-004

"Count Rate"
       0.11719	      22.61288
       0.23438	      21.98973
       0.35156	      22.21168
       0.46875	      23.91895
       0.58594	      23.44091
       0.70313	      24.08114
       0.82031	      24.26894
       0.93750	      23.95310
       1.05469	      25.28477
       1.17188	      24.02139
       1.28906	      23.87627
       1.40625	      24.06407
       1.52344	      22.99702
       1.64063	      23.93602
       1.75781	      22.21168
       1.87500	      21.43486
       1.99219	      23.81651
       2.10938	      23.41530
       2.22656	      24.60186
       2.34375	      21.11048
       2.46094	      24.80674
       2.57813	      20.91414
       2.69531	      23.25311
       2.81250	      23.60311
       2.92969	      23.66286
       3.04688	      23.78237
       3.16406	      25.59208
       3.28125	      22.81776
       3.39844	      22.22021
       3.51563	      25.08844
       3.63281	      23.31287
       3.75000	      22.04095
       3.86719	      22.73240
       3.98438	      23.69701
       4.10156	      23.15921
       4.21875	      20.53001
       4.33594	      22.80069
       4.45313	      21.57145
       4.57031	      23.11653
       4.68750	      23.21043
       4.80469	      22.74947
       4.92188	      22.38240
       5.03906	      23.99578
       5.15625	      22.90312
       5.27344	      21.81046
       5.39063	      22.85190
       5.50781	      23.67993
       5.62500	      20.58122
       5.74219	      23.73115
       5.85938	      23.19336
       5.97656	      24.11529
       6.09375	      23.28726
       6.21094	      21.26414
       6.32813	      27.26521
       6.44531	      22.10924
       6.56250	      23.40677
       6.67969	      24.27748
       6.79688	      23.17629
       6.91406	      22.96288
       7.03125	      25.37867
       7.14844	      24.72137
       7.26563	      23.04824
       7.38281	      23.81651
       7.50000	      22.66410
       7.61719	      23.32141
       7.73438	      23.39823
       7.85156	      23.58603
       7.96875	      24.17504
       8.08594	      23.78237
       8.20313	      22.00680
       8.32031	      22.82629
       8.43750	      22.89458
       8.55469	      22.53606
       8.67188	      22.76654
       8.78906	      22.82629
       8.90625	      24.43967
       9.02344	      24.43114
       9.14063	      21.94705
       9.25781	      21.94705
       9.37500	      23.22750
       9.49219	      25.59208
       9.60938	      22.51045
       9.72656	      22.28850
       9.84375	      24.14944
       9.96094	      23.56042
      10.07813	      25.48965
      10.19531	      25.02015
      10.31250	      24.37138
      10.42969	      22.27997
      10.54688	      22.90312
      10.66406	      24.30309
      10.78125	      22.55313
      10.89844	      23.83359
      11.01563	      23.06531
      11.13281	      23.06531
      11.25000	      22.48484
      11.36719	      24.48235
      11.48438	      23.37262
      11.60156	      21.34950
      11.71875	      21.56291
      11.83594	      23.71408
      11.95313	      20.81171
      12.07031	      22.37387
      12.18750	      21.92144
      12.30469	      22.68118
      12.42188	      25.19941
      12.53906	      23.96163
      12.65625	      21.70803
      12.77344	      25.10551
      12.89063	      23.27019
      13.00781	      23.22750
      13.12500	      25.24209
      13.24219	      24.63601
      13.35938	      22.15192
      13.47656	      21.02512
      13.59375	      22.94580
      13.71094	      23.47506
      13.82813	      19.83856
      13.94531	      22.74093
      14.06250	      23.51774
      14.17969	      21.98973
      14.29688	      23.50920
      14.41406	      23.59457
      14.53125	      26.11280
      14.64844	      23.56896
      14.76563	      22.45069
      14.88281	      20.33367
      15.00000	      23.65432
      15.11719	      23.24458
      15.23438	      23.21043
      15.35156	      22.33118
      15.46875	      23.11653
      15.58594	      22.27997
      15.70313	      24.08114
      15.82031	      22.40801
      15.93750	      22.64703
      16.05469	      23.56042
      16.17188	      25.30185
      16.28906	      22.28850
      16.40625	      22.35679
      16.52344	      24.93478
      16.64063	      23.21897
      16.75781	      23.60311
      16.87500	      24.05553
      16.99219	      24.34577
      17.10938	      22.88605
      17.22656	      25.00307
      17.34375	      23.27872
      17.46094	      21.36657
      17.57813	      22.27997
      17.69531	      24.49089
      17.81250	      21.17877
      17.92969	      21.97266
      18.04688	      22.01534
      18.16406	      21.64827
      18.28125	      19.79588
      18.39844	      22.45069
      18.51563	      23.40677
      18.63281	      24.15797
      18.75000	      21.05073
      18.86719	      25.50672
      18.98438	      23.52628
      19.10156	      22.18607
      19.21875	      24.58479
      19.33594	      21.57145
      19.45313	      22.34826
      19.57031	      22.06656
      19.68750	      22.46777
      19.80469	      20.72634
      19.92188	      24.72137
      20.03906	      21.92997
      20.15625	      22.27997
      20.27344	      23.94456
      20.39063	      24.20919
      20.50781	      22.39094
      20.62500	      22.63849
      20.74219	      23.56042
      20.85938	      23.32141
      20.97656	      24.80674
      21.09375	      21.46047
      21.21094	      21.52023
      21.32813	      23.67993
      21.44531	      23.52628
      21.56250	      23.65432
      21.67969	      24.96039
      21.79688	      23.42384
      21.91406	      20.49586
      22.03125	      24.06407
      22.14844	      21.75071
      22.26563	      22.56167
      22.38281	      23.13360
      22.50000	      23.70554
      22.61719	      24.02992
      22.73438	      22.92873
      22.85156	      24.76405
      22.96875	      27.73472
      23.08594	      23.96163
      23.20313	      23.35555
      23.32031	      22.21168
      23.43750	      22.62996
      23.55469	      20.47025
      23.67188	      23.32994
      23.78906	      23.67993
      23.90625	      23.57750
      24.02344	      23.16775
      24.14063	      22.49338
      24.25781	      23.37262
      24.37500	      23.60311
      24.49219	      24.43967
      24.60938	      25.68598
      24.72656	      21.67388
      24.84375	      22.50191
      24.96094	      24.22626
      25.07813	      23.62872
      25.19531	      25.59208
      25.31250	      22.81776
      25.42969	      23.38970
      25.54688	      25.02015
      25.66406	      25.11405
      25.78125	      23.54335
      25.89844	      23.79091
      26.01563	      22.36533
      26.13281	      21.98973
      26.25000	      27.54692
      26.36719	      22.34826
      26.48438	      25.07990
      26.60156	      23.63725
      26.71875	      25.07136
      26.83594	      23.59457
      26.95313	      23.11653
      27.07031	      24.45674
      27.18750	      20.39342
      27.30469	      25.59208
      27.42188	      21.23853
      27.53906	      22.62996
      27.65625	      28.11885
      27.77344	      21.91290
      27.89063	      24.18358
      28.00781	      24.67869
      28.12500	      23.78237
      28.24219	      23.83359
      28.35938	      24.94332
      28.47656	      23.28726
      28.59375	      20.64952
      28.71094	      22.22875
      28.82813	      23.19336
      28.94531	      23.56042
      29.06250	      23.67993
      29.17969	      23.46652
      29.29688	      24.48235
      29.41406	      25.20795
      29.53125	      24.26041
      29.64844	      22.86044
      29.76563	      23.46652
      29.88281	      22.82629
