ALV-5000/E-WIN Data
Date :	"13.03.17"
Time :	"13:03:20"
Samplename : 	""
Temperature [K] :	     298.16000
Viscosity [cp]  :	       0.89454
Refractive Index:	       1.33000
Wavelength [nm] :	     532.00000
Angle [°]       :	      80.00000
Duration [s]    :	       900
Runs            :	         1
Mode            :	"SINGLE AUTO CH0"
MeanCR0 [kHz]   :	     414.38989
MeanCR1 [kHz]   :	       0.00000

"Correlation"
  2.00000E-004	  3.44627E-001
  4.00000E-004	  3.49839E-001
  6.00000E-004	  3.47817E-001
  8.00000E-004	  3.46706E-001
  1.00000E-003	  3.45932E-001
  1.20000E-003	  3.45317E-001
  1.40000E-003	  3.44498E-001
  1.60000E-003	  3.44185E-001
  1.80000E-003	  3.43783E-001
  2.00000E-003	  3.43503E-001
  2.20000E-003	  3.43258E-001
  2.40000E-003	  3.42845E-001
  2.60000E-003	  3.42257E-001
  2.80000E-003	  3.42097E-001
  3.00000E-003	  3.41436E-001
  3.20000E-003	  3.41219E-001
  3.60000E-003	  3.40447E-001
  4.00000E-003	  3.39491E-001
  4.40000E-003	  3.38774E-001
  4.80000E-003	  3.38025E-001
  5.20000E-003	  3.37025E-001
  5.60000E-003	  3.36679E-001
  6.00000E-003	  3.35818E-001
  6.40000E-003	  3.35037E-001
  7.20000E-003	  3.33526E-001
  8.00000E-003	  3.32103E-001
  8.80000E-003	  3.30756E-001
  9.60000E-003	  3.29134E-001
  1.04000E-002	  3.27589E-001
  1.12000E-002	  3.26425E-001
  1.20000E-002	  3.25214E-001
  1.28000E-002	  3.23747E-001
  1.44000E-002	  3.21071E-001
  1.60000E-002	  3.18697E-001
  1.76000E-002	  3.16259E-001
  1.92000E-002	  3.13698E-001
  2.08000E-002	  3.11452E-001
  2.24000E-002	  3.09256E-001
  2.40000E-002	  3.07122E-001
  2.56000E-002	  3.04972E-001
  2.88000E-002	  3.00732E-001
  3.20000E-002	  2.96733E-001
  3.52000E-002	  2.93057E-001
  3.84000E-002	  2.89536E-001
  4.16000E-002	  2.86074E-001
  4.48000E-002	  2.82863E-001
  4.80000E-002	  2.79738E-001
  5.12000E-002	  2.76881E-001
  5.76000E-002	  2.71343E-001
  6.40000E-002	  2.66289E-001
  7.04000E-002	  2.61497E-001
  7.68000E-002	  2.57124E-001
  8.32000E-002	  2.53092E-001
  8.96000E-002	  2.49293E-001
  9.60000E-002	  2.45765E-001
  1.02400E-001	  2.42509E-001
  1.15200E-001	  2.36430E-001
  1.28000E-001	  2.31155E-001
  1.40800E-001	  2.26274E-001
  1.53600E-001	  2.21923E-001
  1.66400E-001	  2.18026E-001
  1.79200E-001	  2.14398E-001
  1.92000E-001	  2.11100E-001
  2.04800E-001	  2.08061E-001
  2.30400E-001	  2.02593E-001
  2.56000E-001	  1.97830E-001
  2.81600E-001	  1.93678E-001
  3.07200E-001	  1.89980E-001
  3.32800E-001	  1.86656E-001
  3.58400E-001	  1.83663E-001
  3.84000E-001	  1.80950E-001
  4.09600E-001	  1.78539E-001
  4.60800E-001	  1.74201E-001
  5.12000E-001	  1.70461E-001
  5.63200E-001	  1.67193E-001
  6.14400E-001	  1.64270E-001
  6.65600E-001	  1.61614E-001
  7.16800E-001	  1.59269E-001
  7.68000E-001	  1.57121E-001
  8.19200E-001	  1.55231E-001
  9.21600E-001	  1.51844E-001
  1.02400E+000	  1.48889E-001
  1.12640E+000	  1.46365E-001
  1.22880E+000	  1.44222E-001
  1.33120E+000	  1.42356E-001
  1.43360E+000	  1.40746E-001
  1.53600E+000	  1.39184E-001
  1.63840E+000	  1.37756E-001
  1.84320E+000	  1.35243E-001
  2.04800E+000	  1.33522E-001
  2.25280E+000	  1.31915E-001
  2.45760E+000	  1.30630E-001
  2.66240E+000	  1.29369E-001
  2.86720E+000	  1.28421E-001
  3.07200E+000	  1.27597E-001
  3.22560E+000	  1.27019E-001
  3.63520E+000	  1.25581E-001
  4.04480E+000	  1.24492E-001
  4.45440E+000	  1.23807E-001
  4.86400E+000	  1.23090E-001
  5.27360E+000	  1.22501E-001
  5.68320E+000	  1.21984E-001
  6.09280E+000	  1.21498E-001
  6.50240E+000	  1.21122E-001
  7.32160E+000	  1.20363E-001
  8.14080E+000	  1.19927E-001
  8.96000E+000	  1.19403E-001
  9.77920E+000	  1.19225E-001
  1.05984E+001	  1.18933E-001
  1.14176E+001	  1.18658E-001
  1.22368E+001	  1.18319E-001
  1.30560E+001	  1.18123E-001
  1.46944E+001	  1.17751E-001
  1.63328E+001	  1.17482E-001
  1.79712E+001	  1.17443E-001
  1.96096E+001	  1.17130E-001
  2.12480E+001	  1.17111E-001
  2.28864E+001	  1.16909E-001
  2.45248E+001	  1.16758E-001
  2.61632E+001	  1.16577E-001
  2.94400E+001	  1.16314E-001
  3.27168E+001	  1.16238E-001
  3.59936E+001	  1.16086E-001
  3.92704E+001	  1.15941E-001
  4.25472E+001	  1.15711E-001
  4.58240E+001	  1.15506E-001
  4.91008E+001	  1.15481E-001
  5.23776E+001	  1.15285E-001
  5.89312E+001	  1.15031E-001
  6.54848E+001	  1.14726E-001
  7.20384E+001	  1.14549E-001
  7.85920E+001	  1.14166E-001
  8.51456E+001	  1.14080E-001
  9.16992E+001	  1.13863E-001
  9.82528E+001	  1.13736E-001
  1.04806E+002	  1.13491E-001
  1.17914E+002	  1.13102E-001
  1.31021E+002	  1.12660E-001
  1.44128E+002	  1.12386E-001
  1.57235E+002	  1.12023E-001
  1.70342E+002	  1.11846E-001
  1.83450E+002	  1.11652E-001
  1.96557E+002	  1.11124E-001
  2.09664E+002	  1.10832E-001
  2.35878E+002	  1.10287E-001
  2.62093E+002	  1.09757E-001
  2.88307E+002	  1.09138E-001
  3.14522E+002	  1.08763E-001
  3.40736E+002	  1.08339E-001
  3.66950E+002	  1.07851E-001
  3.93165E+002	  1.07404E-001
  4.19379E+002	  1.06835E-001
  4.71808E+002	  1.06065E-001
  5.24237E+002	  1.05325E-001
  5.76666E+002	  1.04612E-001
  6.29094E+002	  1.03973E-001
  6.81523E+002	  1.03357E-001
  7.33952E+002	  1.02710E-001
  7.86381E+002	  1.02137E-001
  8.38810E+002	  1.00595E-001
  9.43667E+002	  9.96264E-002
  1.04852E+003	  9.87548E-002
  1.15338E+003	  9.76801E-002
  1.25824E+003	  9.68225E-002
  1.36310E+003	  9.59926E-002
  1.46796E+003	  9.50608E-002
  1.57281E+003	  9.44530E-002
  1.67767E+003	  9.16747E-002
  1.88739E+003	  9.03595E-002
  2.09710E+003	  8.90938E-002
  2.30682E+003	  8.78757E-002
  2.51653E+003	  8.67192E-002
  2.72625E+003	  8.55827E-002
  2.93596E+003	  8.44215E-002
  3.14568E+003	  8.33880E-002
  3.35539E+003	  7.91030E-002
  3.77482E+003	  7.82740E-002
  4.19425E+003	  7.73784E-002
  4.61368E+003	  7.66125E-002
  5.03311E+003	  7.58099E-002
  5.45254E+003	  7.51084E-002
  5.87197E+003	  7.36463E-002
  6.29140E+003	  7.24352E-002
  6.71083E+003	  6.97974E-002
  7.54970E+003	  6.81672E-002
  8.38856E+003	  6.58328E-002
  9.22742E+003	  6.35431E-002
  1.00663E+004	  6.15860E-002
  1.09051E+004	  5.94533E-002
  1.17440E+004	  5.82617E-002
  1.25829E+004	  5.75944E-002
  1.34217E+004	  5.86897E-002
  1.50994E+004	  5.54375E-002
  1.67772E+004	  5.14730E-002
  1.84549E+004	  4.83345E-002
  2.01326E+004	  4.49814E-002
  2.18103E+004	  4.12580E-002
  2.34881E+004	  4.00655E-002
  2.51658E+004	  3.96532E-002
  2.68435E+004	  3.80078E-002
  3.01989E+004	  3.53195E-002
  3.35544E+004	  3.21285E-002
  3.69098E+004	  2.77311E-002
  4.02653E+004	  2.29809E-002
  4.36207E+004	  1.94105E-002
  4.69762E+004	  1.65902E-002
  5.03316E+004	  9.40744E-003
  5.36870E+004	  9.44461E-003
  6.03979E+004	  7.50600E-003
  6.71088E+004	  3.17600E-003
  7.38197E+004	  4.58419E-003
  8.05306E+004	 -2.05189E-003
  8.72415E+004	 -4.47240E-003
  9.39524E+004	 -7.96551E-003
  1.00663E+005	 -1.28569E-002
  1.07374E+005	 -3.58926E-002
  1.20796E+005	 -3.33948E-002
  1.34218E+005	 -2.71201E-002
  1.47639E+005	 -2.14735E-002
  1.61061E+005	 -1.84057E-003
  1.74483E+005	  1.51191E-002
  1.87905E+005	  1.98161E-002
  2.01327E+005	  1.68097E-002

"Count Rate"
       3.51563	     844.04077
       7.03125	     769.38745
      10.54688	     569.09741
      14.06250	     406.67975
      17.57813	     402.87213
      21.09375	     384.10461
      24.60938	     402.38403
      28.12500	     441.22720
      31.64063	     523.70453
      35.15625	     449.93042
      38.67188	     394.83878
      42.18750	     453.39612
      45.70313	     336.79886
      49.21875	     294.49652
      52.73438	     296.03223
      56.25000	     288.62637
      59.76563	     263.35043
      63.28125	     287.34097
      66.79688	     369.08896
      70.31250	     436.77420
      73.82813	     427.89890
      77.34375	     467.18811
      80.85938	     441.17572
      84.37500	     375.90573
      87.89063	     347.28668
      91.40625	     247.65013
      94.92188	     250.10063
      98.43750	     251.22762
     101.95313	     249.42792
     105.46875	     244.84691
     108.98438	     280.49976
     112.50000	     282.52530
     116.01563	     244.55649
     119.53125	     295.52734
     123.04688	     363.54880
     126.56250	     383.70157
     130.07813	     315.57770
     133.59375	     284.33438
     137.10938	     248.33479
     140.62500	     279.62222
     144.14063	     359.08411
     147.65625	     483.81146
     151.17188	     471.22894
     154.68750	     451.89426
     158.20313	     422.39771
     161.71875	     354.44650
     165.23438	     369.91983
     168.75000	     346.77896
     172.26563	     357.99042
     175.78125	     330.28531
     179.29688	     347.93835
     182.81250	     373.45523
     186.32813	     335.97595
     189.84375	     287.00787
     193.35938	     241.51575
     196.87500	     247.84526
     200.39063	     363.08231
     203.90625	     286.89780
     207.42188	     250.37627
     210.93750	     264.52264
     214.45313	     286.44580
     217.96875	     276.35138
     221.48438	     259.86655
     225.00000	     252.65297
     228.51563	     291.88416
     232.03125	     310.19485
     235.54688	     340.22559
     239.06250	     283.60077
     242.57813	     290.53247
     246.09375	     294.79034
     249.60938	     242.46893
     253.12500	     264.14890
     256.64063	     243.23466
     260.15625	     236.88638
     263.67188	     213.65248
     267.18750	     244.63612
     270.70313	     309.81509
     274.21875	     231.86789
     277.73438	     269.53546
     281.25000	     305.21475
     284.76563	     343.01401
     288.28125	     410.44183
     291.79688	     427.80988
     295.31250	     442.14142
     298.82813	     317.33560
     302.34375	     419.03467
     305.85938	     514.43585
     309.37500	     619.51758
     312.89063	     501.15445
     316.40625	     529.29962
     319.92188	     641.04193
     323.43750	     745.15515
     326.95313	     645.64172
     330.46875	     589.00153
     333.98438	     602.01813
     337.50000	     573.81207
     341.01563	     663.33374
     344.53125	     416.56683
     348.04688	     486.45795
     351.56250	     418.70929
     355.07813	     434.15503
     358.59375	     494.26346
     362.10938	     480.43451
     365.62500	     476.10721
     369.14063	     530.63336
     372.65625	     425.02768
     376.17188	     406.13501
     379.68750	     464.05066
     383.20313	     523.59448
     386.71875	     420.01120
     390.23438	     395.85172
     393.75000	     372.75095
     397.26563	     377.18774
     400.78125	     354.26672
     404.29688	     439.75037
     407.81250	     347.04691
     411.32813	     246.62753
     414.84375	     342.58392
     418.35938	     274.88391
     421.87500	     261.78543
     425.39063	     252.18961
     428.90625	     315.79617
     432.42188	     285.51483
     435.93750	     253.49295
     439.45313	     254.03397
     442.96875	     261.44180
     446.48438	     250.58931
     450.00000	     236.01512
     453.51563	     230.70621
     457.03125	     252.58499
     460.54688	     264.90012
     464.06250	     256.15820
     467.57813	     232.22658
     471.09375	     224.54480
     474.60938	     277.88510
     478.12500	     343.58633
     481.64063	     307.25537
     485.15625	     362.67499
     488.67188	     405.51605
     492.18750	     286.74136
     495.70313	     257.69110
     499.21875	     263.21136
     502.73438	     235.99548
     506.25000	     252.08636
     509.76563	     387.28589
     513.28125	     325.93127
     516.79688	     393.92343
     520.31250	     448.70389
     523.82813	     374.33643
     527.34375	     368.45721
     530.85938	     370.78513
     534.37500	     411.64731
     537.89063	     358.30502
     541.40625	     312.38052
     544.92188	     484.45175
     548.43750	     616.18866
     551.95313	     759.68640
     555.46875	     702.58002
     558.98438	     716.87201
     562.50000	     708.75592
     566.01563	     759.64685
     569.53125	     569.43048
     573.04688	     535.31506
     576.56250	     605.54840
     580.07813	     552.44989
     583.59375	     609.65240
     587.10938	     503.79498
     590.62500	     439.66760
     594.14063	     422.74359
     597.65625	     396.40921
     601.17188	     389.92184
     604.68750	     433.02832
     608.20313	     440.78235
     611.71875	     479.38147
     615.23438	     425.45978
     618.75000	     446.97049
     622.26563	     418.99200
     625.78125	     424.93069
     629.29688	     387.60703
     632.81250	     314.90045
     636.32813	     277.04456
     639.84375	     329.71756
     643.35938	     347.89285
     646.87500	     348.37073
     650.39063	     358.50699
     653.90625	     460.84436
     657.42188	     680.65430
     660.93750	     480.61285
     664.45313	     504.85623
     667.96875	     486.10950
     671.48438	     445.74252
     675.00000	     442.14853
     678.51563	     406.49854
     682.03125	     587.79523
     685.54688	     567.06244
     689.06250	     505.55997
     692.57813	     427.04242
     696.09375	     416.81143
     699.60938	     338.81644
     703.12500	     404.27560
     706.64063	     388.00638
     710.15625	     352.48270
     713.67188	     362.74240
     717.18750	     352.00937
     720.70313	     362.37204
     724.21875	     346.85236
     727.73438	     410.31638
     731.25000	     471.54126
     734.76563	     427.83035
     738.28125	     556.44580
     741.79688	     645.69861
     745.31250	     655.14905
     748.82813	     578.29242
     752.34375	     518.66498
     755.85938	     632.76996
     759.37500	     574.18982
     762.89063	     594.78778
     766.40625	     592.06647
     769.92188	     642.85303
     773.43750	     554.86877
     776.95313	     620.70654
     780.46875	     609.48004
     783.98438	     556.91595
     787.50000	     477.22510
     791.01563	     502.42877
     794.53125	     401.57535
     798.04688	     486.88690
     801.56250	     367.39310
     805.07813	     423.52838
     808.59375	     491.31372
     812.10938	     456.42151
     815.62500	     546.92505
     819.14063	     514.08740
     822.65625	     509.44095
     826.17188	     459.00171
     829.68750	     513.50482
     833.20313	     482.43643
     836.71875	     575.07446
     840.23438	     557.53918
     843.75000	     557.73004
     847.26563	     405.11130
     850.78125	     388.69019
     854.29688	     464.35217
     857.81250	     420.18839
     861.32813	     347.90424
     864.84375	     292.43741
     868.35938	     318.08966
     871.87500	     467.69781
     875.39063	     397.63034
     878.90625	     386.19586
     882.42188	     449.00284
     885.93750	     542.51526
     889.45313	     669.73206
     892.96875	     616.98798
     896.48438	     721.97327
